# Thermally averaged energies (eV) are sorted in increasing order.
# Column-1 ==> Temperature(K)
# Column-2 ==>  Orbital-7
# Column-3 ==>  Orbital-8
      0.00      -10.459491      -10.450168 
     10.00      -10.459491      -10.450168 
     20.00      -10.459491      -10.450168 
     30.00      -10.459491      -10.450168 
     40.00      -10.459491      -10.450168 
     50.00      -10.459491      -10.450168 
     60.00      -10.459491      -10.450168 
     70.00      -10.459491      -10.450168 
     80.00      -10.459491      -10.450168 
     90.00      -10.459491      -10.450167 
    100.00      -10.459489      -10.450164 
    110.00      -10.459486      -10.450159 
    120.00      -10.459482      -10.450150 
    130.00      -10.459474      -10.450135 
    140.00      -10.459462      -10.450113 
    150.00      -10.459446      -10.450083 
    160.00      -10.459424      -10.450043 
    170.00      -10.459397      -10.449992 
    180.00      -10.459363      -10.449929 
    190.00      -10.459323      -10.449854 
    200.00      -10.459276      -10.449767 
    210.00      -10.459223      -10.449667 
    220.00      -10.459163      -10.449554 
    230.00      -10.459096      -10.449429 
    240.00      -10.459022      -10.449292 
    250.00      -10.458942      -10.449142 
    260.00      -10.458856      -10.448981 
    270.00      -10.458763      -10.448808 
    280.00      -10.458665      -10.448625 
    290.00      -10.458561      -10.448431 
    300.00      -10.458451      -10.448227 
    310.00      -10.458336      -10.448013 
    320.00      -10.458217      -10.447790 
    330.00      -10.458092      -10.447557 
    340.00      -10.457963      -10.447317 
    350.00      -10.457829      -10.447068 
    360.00      -10.457691      -10.446812 
    370.00      -10.457548      -10.446548 
    380.00      -10.457402      -10.446276 
    390.00      -10.457251      -10.445998 
    400.00      -10.457097      -10.445713 
    410.00      -10.456939      -10.445422 
    420.00      -10.456778      -10.445125 
    430.00      -10.456613      -10.444821 
    440.00      -10.456444      -10.444512 
    450.00      -10.456273      -10.444198 
    460.00      -10.456097      -10.443878 
    470.00      -10.455919      -10.443552 
    480.00      -10.455737      -10.443222 
    490.00      -10.455553      -10.442886 
    500.00      -10.455365      -10.442546 
    510.00      -10.455174      -10.442201 
    520.00      -10.454980      -10.441851 
    530.00      -10.454782      -10.441497 
    540.00      -10.454582      -10.441138 
    550.00      -10.454379      -10.440775 
    560.00      -10.454173      -10.440408 
    570.00      -10.453964      -10.440036 
    580.00      -10.453752      -10.439661 
    590.00      -10.453538      -10.439281 
    600.00      -10.453320      -10.438897 
    610.00      -10.453100      -10.438510 
    620.00      -10.452876      -10.438119 
    630.00      -10.452650      -10.437724 
    640.00      -10.452421      -10.437325 
    650.00      -10.452190      -10.436922 
    660.00      -10.451955      -10.436516 
    670.00      -10.451718      -10.436107 
    680.00      -10.451479      -10.435694 
    690.00      -10.451236      -10.435277 
    700.00      -10.450991      -10.434857 
    710.00      -10.450743      -10.434434 
    720.00      -10.450493      -10.434008 
    730.00      -10.450240      -10.433578 
    740.00      -10.449985      -10.433145 
    750.00      -10.449726      -10.432709 
    760.00      -10.449466      -10.432270 
    770.00      -10.449203      -10.431827 
    780.00      -10.448937      -10.431382 
    790.00      -10.448669      -10.430934 
    800.00      -10.448399      -10.430483 
    810.00      -10.448126      -10.430029 
    820.00      -10.447851      -10.429572 
    830.00      -10.447574      -10.429112 
    840.00      -10.447294      -10.428650 
    850.00      -10.447012      -10.428185 
    860.00      -10.446728      -10.427717 
    870.00      -10.446441      -10.427246 
    880.00      -10.446152      -10.426773 
    890.00      -10.445861      -10.426298 
    900.00      -10.445568      -10.425820 
    910.00      -10.445273      -10.425339 
    920.00      -10.444976      -10.424856 
    930.00      -10.444677      -10.424371 
    940.00      -10.444375      -10.423883 
    950.00      -10.444072      -10.423393 
    960.00      -10.443766      -10.422900 
    970.00      -10.443459      -10.422406 
    980.00      -10.443150      -10.421909 
    990.00      -10.442838      -10.421410 
   1000.00      -10.442525      -10.420909 
   1010.00      -10.442210      -10.420405 
   1020.00      -10.441894      -10.419900 
   1030.00      -10.441575      -10.419392 
   1040.00      -10.441255      -10.418883 
   1050.00      -10.440933      -10.418371 
   1060.00      -10.440609      -10.417858 
   1070.00      -10.440283      -10.417342 
   1080.00      -10.439956      -10.416825 
   1090.00      -10.439627      -10.416306 
   1100.00      -10.439297      -10.415785 
